Time(s)	Displ(microns)	Friction	Effective_Normal_stress(MPa)
11745.633000	9983.126742	0.608176	19.964652
11745.634000	9983.410592	0.608355	19.960845
11745.635000	9983.393488	0.608673	19.960868
11745.636000	9983.070890	0.608664	19.957977
11745.637000	9983.480753	0.608694	19.959540
11745.638000	9983.455255	0.608815	19.951370
11745.639000	9983.681310	0.609511	19.946366
11745.640000	9983.620056	0.609363	19.936495
11745.641000	9983.680740	0.609062	19.946496
11745.642000	9984.135820	0.609671	19.944353
11745.643000	9983.926655	0.610085	19.944223
11745.644000	9984.531080	0.609313	19.950471
11745.645000	9983.944126	0.608772	19.963225
11745.646000	9985.029709	0.609586	19.950630
11745.647000	9984.993719	0.609575	19.948007
11745.648000	9984.333390	0.609314	19.956230
11745.649000	9984.771854	0.608663	19.960502
11745.650000	9984.715744	0.608467	19.957595
11745.651000	9984.504492	0.608387	19.961326
11745.652000	9985.214352	0.608871	19.957901
11745.653000	9985.042843	0.608672	19.961226
11745.654000	9984.721587	0.608253	19.972105
11745.655000	9985.986427	0.608568	19.967314
11745.656000	9985.996957	0.608373	19.971449
11745.657000	9985.435895	0.608299	19.974927
11745.658000	9985.465728	0.607875	19.972570
11745.659000	9985.669263	0.608022	19.971418
11745.660000	9986.192647	0.608870	19.948380
11745.661000	9986.130586	0.608434	19.965178
11745.662000	9986.489394	0.608518	19.960059
11745.663000	9986.730923	0.608660	19.952148
11745.664000	9986.586338	0.608515	19.954719
11745.665000	9986.449660	0.608773	19.952545
11745.666000	9986.835489	0.609186	19.945054
11745.667000	9986.957074	0.608367	19.948319
11745.668000	9987.286472	0.608037	19.951020
11745.669000	9986.365863	0.607716	19.946954
11745.670000	9986.958175	0.607361	19.953011
11745.671000	9987.413288	0.607505	19.947739
11745.672000	9987.231288	0.607857	19.949562
11745.673000	9986.664807	0.607630	19.957252
11745.674000	9987.011240	0.607745	19.955734
11745.675000	9987.813237	0.607178	19.957489
11745.676000	9987.455420	0.607654	19.947724
11745.677000	9987.937484	0.607551	19.952072
11745.678000	9987.836934	0.607249	19.956795
11745.679000	9987.326176	0.606494	19.968611
11745.680000	9987.352719	0.606898	19.967947
11745.681000	9987.613321	0.607877	19.943925
11745.682000	9988.493587	0.607668	19.950180
11745.683000	9988.576841	0.607375	19.961165
11745.684000	9988.669213	0.607608	19.959281
11745.685000	9988.941291	0.607506	19.964560
11745.686000	9988.376397	0.607773	19.960708
11745.687000	9988.487908	0.607836	19.963828
11745.688000	9988.821592	0.607995	19.958755
11745.689000	9989.016025	0.607756	19.956001
11745.690000	9989.376071	0.606998	19.962027
11745.691000	9989.417470	0.606994	19.969412
11745.692000	9989.589708	0.607147	19.961761
11745.693000	9989.516572	0.607325	19.958961
11745.694000	9989.507369	0.607379	19.957283
11745.695000	9989.720912	0.607737	19.957672
11745.696000	9989.357754	0.607317	19.964583
11745.697000	9989.732523	0.606851	19.963141
11745.698000	9989.928190	0.606869	19.958251
11745.699000	9990.156628	0.606573	19.962310
11745.700000	9990.011222	0.606787	19.954475
11745.701000	9989.510429	0.606488	19.955253
11745.702000	9989.776385	0.606807	19.952233
11745.703000	9990.199202	0.607374	19.940652
11745.704000	9989.779326	0.607638	19.942857
11745.705000	9990.229526	0.607151	19.955772
11745.706000	9990.435192	0.607415	19.942278
11745.707000	9990.669706	0.607606	19.944703
11745.708000	9990.991543	0.607583	19.947526
11745.709000	9990.622135	0.607247	19.954300
11745.710000	9990.973695	0.607522	19.948953
11745.711000	9991.072950	0.607347	19.956558
11745.712000	9991.426037	0.608218	19.953705
11745.713000	9990.625418	0.608800	19.949792
11745.714000	9992.115225	0.608414	19.959075
11745.715000	9992.235550	0.608316	19.971555
11745.716000	9991.083095	0.608232	19.961150
11745.717000	9991.761367	0.608604	19.955749
11745.718000	9991.789356	0.608020	19.963034
11745.719000	9991.660582	0.607977	19.962348
11745.720000	9991.755685	0.607437	19.968138
11745.721000	9991.107353	0.607169	19.973630
11745.722000	9991.986895	0.607453	19.962531
11745.723000	9991.791992	0.607598	19.966170
11745.724000	9993.024428	0.607844	19.964789
11745.725000	9992.673575	0.607966	19.954788
11745.726000	9992.273295	0.607746	19.960151
11745.727000	9992.404032	0.608108	19.951859
11745.728000	9992.320857	0.608544	19.954003
11745.729000	9992.708902	0.608283	19.956100
11745.730000	9992.762593	0.607867	19.964461
11745.731000	9992.779363	0.608376	19.945398
11745.732000	9993.149401	0.608039	19.956421
11745.733000	9993.794702	0.608328	19.956710
11745.734000	9993.219799	0.608257	19.968901
11745.735000	9993.403908	0.608854	19.958183
11745.736000	9993.286801	0.609126	19.955742
11745.737000	9993.356758	0.608936	19.957069
11745.738000	9993.966404	0.608955	19.956604
11745.739000	9993.826397	0.608955	19.948701
11745.740000	9993.973119	0.608378	19.955368
11745.741000	9993.592961	0.608007	19.961158
11745.742000	9994.225092	0.608858	19.951539
11745.743000	9994.624390	0.608866	19.958045
11745.744000	9994.283238	0.608498	19.956802
11745.745000	9994.286300	0.608561	19.952744
11745.746000	9994.440367	0.608318	19.965643
11745.747000	9995.157877	0.608567	19.960670
11745.748000	9995.121389	0.608456	19.956642
11745.749000	9995.555078	0.608161	19.958549
11745.750000	9995.328259	0.607703	19.964072
11745.751000	9995.352195	0.607624	19.966177
11745.752000	9995.579306	0.608209	19.957336
11745.753000	9995.530193	0.608346	19.954384
11745.754000	9995.770710	0.608110	19.958900
11745.755000	9995.613315	0.607702	19.956131
11745.756000	9995.731411	0.607562	19.955734
11745.757000	9995.523512	0.607467	19.958282
11745.758000	9995.711241	0.606891	19.958000
11745.759000	9995.953103	0.606415	19.961310
11745.760000	9995.335727	0.606281	19.956451
11745.761000	9995.668079	0.606239	19.955177
11745.762000	9996.446820	0.606464	19.954353
11745.763000	9996.274484	0.606635	19.955856
11745.764000	9996.213444	0.606879	19.959274
11745.765000	9996.251636	0.607086	19.953857
11745.766000	9996.879562	0.607146	19.954902
11745.767000	9996.248644	0.607544	19.947770
11745.768000	9996.705463	0.607774	19.950203
11745.769000	9996.030161	0.607564	19.944871
11745.770000	9996.847131	0.607135	19.953987
11745.771000	9996.661912	0.607429	19.954369
11745.772000	9996.828366	0.607867	19.951668
11745.773000	9996.529180	0.607880	19.955818
11745.774000	9997.162932	0.607538	19.957725
11745.775000	9997.299345	0.608252	19.957908
11745.776000	9997.124404	0.608979	19.955818
11745.777000	9997.787546	0.608550	19.958907
11745.778000	9997.808568	0.608117	19.969656
11745.779000	9997.894392	0.608259	19.967047
11745.780000	9997.197576	0.608419	19.968161
11745.781000	9997.451726	0.608645	19.959686
11745.782000	9998.790754	0.608557	19.964545
11745.783000	9998.671068	0.608942	19.963134
11745.784000	9998.780567	0.609274	19.957954
11745.785000	9998.863223	0.609131	19.960349
11745.786000	9998.887216	0.608696	19.967184
11745.787000	9998.672499	0.609154	19.969831
11745.788000	9998.681502	0.609146	19.960693
11745.789000	9999.768685	0.608674	19.954788
11745.790000	9999.339502	0.608050	19.968909
11745.791000	9998.815173	0.607838	19.962134
11745.792000	9999.553536	0.608423	19.953186
11745.793000	9999.494386	0.608104	19.951828
11745.794000	9999.644984	0.607954	19.946549
11745.795000	9999.600001	0.607909	19.952477
11745.796000	9999.567540	0.607786	19.950791
11745.797000	9999.888990	0.607332	19.945123
11745.798000	9999.356128	0.607414	19.941873
11745.799000	9999.623537	0.607375	19.947411
11745.800000	10000.229792	0.606952	19.949273
11745.801000	9999.872991	0.606549	19.945520
11745.802000	10000.085100	0.607043	19.951569
11745.803000	10000.585281	0.606843	19.962043
11745.804000	9999.618409	0.607022	19.957573
11745.805000	9999.729708	0.606990	19.953011
11745.806000	10000.105788	0.607087	19.967680
11745.807000	10000.710234	0.607307	19.964178
11745.808000	10000.048126	0.607019	19.966773
11745.809000	10001.061816	0.606791	19.966963
11745.810000	10001.242589	0.606764	19.968954
11745.811000	10000.677381	0.607887	19.953980
11745.812000	10001.214948	0.608326	19.963607
11745.813000	10001.331300	0.608453	19.970144
11745.814000	10001.336399	0.608480	19.952851
11745.815000	10001.907968	0.608691	19.959052
11745.816000	10001.245409	0.609297	19.950349
11745.817000	10001.343460	0.608788	19.954140
11745.818000	10001.600214	0.608515	19.956756
11745.819000	10000.974149	0.608436	19.957893
11745.820000	10001.958963	0.608066	19.960731
11745.821000	10002.206984	0.607954	19.959411
11745.822000	10001.904182	0.608291	19.957679
11745.823000	10001.715257	0.608775	19.954170
11745.824000	10002.203838	0.608320	19.967802
11745.825000	10002.140844	0.609132	19.947137
11745.826000	10002.952002	0.608738	19.967390
11745.827000	10002.885212	0.609072	19.963751
11745.828000	10003.101343	0.608669	19.954620
11745.829000	10003.143356	0.608394	19.964118
11745.830000	10003.060067	0.608502	19.962699
11745.831000	10003.217883	0.608944	19.954254
11745.832000	10003.092825	0.608429	19.963736
11745.833000	10003.216285	0.608433	19.968817
11745.834000	10003.454836	0.608428	19.961776
11745.835000	10003.760246	0.608361	19.955360
11745.836000	10003.191319	0.608256	19.956291
11745.837000	10004.156792	0.608111	19.951874
11745.838000	10004.030625	0.608193	19.946809
11745.839000	10003.792656	0.607924	19.948663
11745.840000	10003.254478	0.607988	19.945664
11745.841000	10003.780455	0.607608	19.947251
11745.842000	10004.169064	0.607455	19.953949
11745.843000	10003.774358	0.607598	19.951599
11745.844000	10003.373916	0.607594	19.952912
11745.845000	10003.750453	0.607673	19.956024
11745.846000	10004.171989	0.607145	19.964667
11745.847000	10004.738028	0.607729	19.960830
11745.848000	10004.346354	0.607836	19.966589
11745.849000	10004.590364	0.607589	19.972234
11745.850000	10004.773870	0.607523	19.974126
11745.851000	10005.135873	0.608484	19.972822
11745.852000	10005.388740	0.609132	19.971922
11745.853000	10005.306678	0.608597	19.976636
11745.854000	10005.606981	0.609170	19.957702
11745.855000	10005.698346	0.609050	19.972837
11745.856000	10006.192349	0.609605	19.958114
11745.857000	10005.991139	0.609126	19.964995
11745.858000	10005.995410	0.608840	19.953438
11745.859000	10006.379834	0.609097	19.951233
11745.860000	10005.858229	0.608843	19.948991
11745.861000	10006.153388	0.608501	19.953659
11745.862000	10006.282169	0.608576	19.948335
11745.863000	10006.461287	0.608361	19.945421
11745.864000	10005.633921	0.608383	19.946389
11745.865000	10006.768595	0.608078	19.946130
11745.866000	10006.310986	0.608079	19.943437
11745.867000	10006.580995	0.607939	19.945039
11745.868000	10006.681342	0.607833	19.940912
11745.869000	10007.205800	0.607668	19.948090
11745.870000	10006.840025	0.607799	19.941194
11745.871000	10006.890407	0.607482	19.953377
11745.872000	10006.999219	0.608022	19.951615
11745.873000	10007.057470	0.608193	19.943903
11745.874000	10007.475136	0.607995	19.958007
11745.875000	10007.604441	0.607459	19.977460
11745.876000	10007.637015	0.608318	19.953430
11745.877000	10008.068311	0.607563	19.970136
11745.878000	10007.104506	0.607147	19.976262
11745.879000	10007.794724	0.607102	19.981099
11745.880000	10008.191784	0.606913	19.982838
11745.881000	10008.492067	0.607598	19.966124
11745.882000	10007.938470	0.607562	19.964629
11745.883000	10007.965982	0.607852	19.961303
11745.884000	10008.709381	0.607652	19.961723
11745.885000	10007.845979	0.608116	19.962531
11745.886000	10008.472590	0.608395	19.956566
11745.887000	10008.351109	0.608311	19.946153
11745.888000	10008.664940	0.607911	19.954910
11745.889000	10008.328074	0.607734	19.955185
11745.890000	10008.682072	0.607772	19.950966
11745.891000	10008.346890	0.608525	19.935786
11745.892000	10009.173789	0.607953	19.954612
11745.893000	10009.313855	0.608334	19.957916
11745.894000	10009.033065	0.608855	19.949174
11745.895000	10009.847371	0.608890	19.950349
11745.896000	10009.539086	0.609031	19.952805
11745.897000	10009.644740	0.609061	19.947510
11745.898000	10009.663580	0.609109	19.950471
11745.899000	10010.214186	0.608574	19.952354
11745.900000	10009.589312	0.608433	19.956436
11745.901000	10009.594732	0.608204	19.965712
11745.902000	10009.751699	0.608419	19.965125
11745.903000	10010.078136	0.608334	19.961242
11745.904000	10010.329268	0.608613	19.957481
11745.905000	10010.291111	0.608303	19.962782
11745.906000	10010.630033	0.608020	19.970114
11745.907000	10010.872033	0.608399	19.957687
11745.908000	10010.793396	0.608465	19.963767
11745.909000	10010.827358	0.608638	19.959113
11745.910000	10010.797832	0.608410	19.958419
11745.911000	10010.630739	0.608388	19.968107
11745.912000	10011.079277	0.608338	19.976407
11745.913000	10010.985584	0.608837	19.963370
11745.914000	10011.078076	0.607959	19.976560
11745.915000	10011.219991	0.608614	19.959090
11745.916000	10011.214502	0.608706	19.961738
11745.917000	10011.559669	0.608679	19.951660
11745.918000	10011.580560	0.608820	19.952050
11745.919000	10012.249275	0.608977	19.939623
11745.920000	10011.900739	0.608508	19.950287
11745.921000	10012.302390	0.608693	19.950341
11745.922000	10012.450748	0.609034	19.942453
11745.923000	10012.178319	0.608956	19.960097
11745.924000	10012.814356	0.609485	19.942247
11745.925000	10012.626634	0.609334	19.946549
11745.926000	10013.132403	0.608638	19.966002
11745.927000	10012.506302	0.608226	19.965712
11745.928000	10012.931444	0.608486	19.947190
11745.929000	10012.944169	0.608072	19.949997
11745.930000	10013.032541	0.607689	19.955437
11745.931000	10013.420018	0.607458	19.957855
11745.932000	10012.992413	0.607443	19.961600
11745.933000	10012.709715	0.607808	19.960883
11745.934000	10013.268637	0.607699	19.962531
11745.935000	10013.612360	0.607715	19.963134
11745.936000	10013.534805	0.607398	19.962386
11745.937000	10013.554562	0.607323	19.962493
11745.938000	10013.779329	0.607067	19.965590
11745.939000	10013.854184	0.606759	19.968832
11745.940000	10013.432449	0.607118	19.956405
11745.941000	10013.443982	0.607196	19.969450
11745.942000	10014.336923	0.607773	19.954475
11745.943000	10014.285963	0.608093	19.945954
11745.944000	10014.084667	0.608439	19.943689
11745.945000	10014.707769	0.608336	19.947999
11745.946000	10014.354190	0.608311	19.952072
11745.947000	10014.560562	0.608676	19.945367
11745.948000	10015.011539	0.608684	19.947602
11745.949000	10014.640666	0.608291	19.947038
11745.950000	10014.802423	0.607998	19.953812
11745.951000	10015.370556	0.608400	19.960860
11745.952000	10015.349856	0.608565	19.951844
11745.953000	10015.381428	0.608642	19.952004
11745.954000	10015.413210	0.608502	19.953720
11745.955000	10016.296872	0.608338	19.962752
11745.956000	10015.411422	0.608866	19.952568
11745.957000	10015.915351	0.608405	19.958320
11745.958000	10016.020141	0.607714	19.973180
11745.959000	10015.844393	0.607448	19.966437
11745.960000	10016.131179	0.607020	19.968176
11745.961000	10016.149509	0.607172	19.964011
11745.962000	10015.791332	0.606989	19.970114
11745.963000	10016.533157	0.607180	19.966917
11745.964000	10015.926049	0.607405	19.966017
11745.965000	10016.297152	0.607039	19.967070
11745.966000	10016.506185	0.607021	19.962188
11745.967000	10016.707591	0.607073	19.960280
11745.968000	10016.681710	0.607088	19.965178
11745.969000	10015.876198	0.607280	19.952683
11745.970000	10016.653682	0.607201	19.946107
11745.971000	10017.010463	0.607615	19.941561
11745.972000	10017.458556	0.607961	19.948510
11745.973000	10017.415208	0.608345	19.942529
11745.974000	10017.624747	0.608072	19.945749
11745.975000	10017.028740	0.609001	19.934649
11745.976000	10017.482481	0.608945	19.944520
11745.977000	10018.088307	0.608844	19.950394
11745.978000	10017.569614	0.608463	19.953804
11745.979000	10017.689209	0.607981	19.955459
11745.980000	10017.903157	0.607628	19.966574
11745.981000	10017.871954	0.607519	19.969259
11745.982000	10018.486788	0.607796	19.958267
11745.983000	10018.375928	0.607992	19.967131
11745.984000	10018.777360	0.607590	19.981610
11745.985000	10018.239259	0.607504	19.971105
11745.986000	10018.532808	0.607692	19.969610
11745.987000	10018.503609	0.607449	19.981670
11745.988000	10018.604991	0.608083	19.962622
11745.989000	10019.042030	0.607410	19.959396
11745.990000	10018.788584	0.607562	19.951172
11745.991000	10018.573301	0.607281	19.969480
11745.992000	10018.554009	0.608051	19.956741
11745.993000	10019.592518	0.608031	19.959617
11745.994000	10019.498605	0.608321	19.948075
11745.995000	10019.047709	0.608398	19.948968
11745.996000	10019.047436	0.608709	19.944345
11745.997000	10018.880017	0.608797	19.940187
11745.998000	10019.656826	0.608735	19.941316
11745.999000	10019.283246	0.608658	19.946130
11746.000000	10020.089438	0.608263	19.948067
11746.001000	10019.969260	0.608186	19.949708
11746.002000	10020.192067	0.608636	19.958305
11746.003000	10020.357514	0.609144	19.959762
11746.004000	10021.188583	0.608758	19.964446
11746.005000	10020.972423	0.608855	19.966795
11746.006000	10020.588847	0.608930	19.971578
11746.007000	10020.768598	0.608816	19.965025
11746.008000	10021.092906	0.608927	19.966673
11746.009000	10020.356739	0.608226	19.972928
11746.010000	10021.279263	0.607757	19.980130
11746.011000	10021.083336	0.608401	19.956482
11746.012000	10021.268985	0.607642	19.956764
11746.013000	10020.754941	0.608124	19.949410
11746.014000	10021.586453	0.608510	19.941934
11746.015000	10020.816326	0.607753	19.953461
11746.016000	10021.289388	0.607588	19.956848
11746.017000	10021.354404	0.608059	19.944848
11746.018000	10021.926357	0.607806	19.944253
11746.019000	10021.775204	0.607391	19.955498
11746.020000	10021.524536	0.607384	19.946107
11746.021000	10022.028666	0.607686	19.953491
11746.022000	10021.865056	0.607927	19.955810
11746.023000	10022.528837	0.608528	19.946130
11746.024000	10022.790294	0.608568	19.946061
11746.025000	10022.466920	0.608128	19.967139
11746.026000	10022.364966	0.607871	19.970083
11746.027000	10022.390513	0.607894	19.973043
11746.028000	10022.676939	0.608522	19.960143
11746.029000	10023.007727	0.608001	19.967429
11746.030000	10023.259499	0.607767	19.961837
11746.031000	10022.662419	0.607421	19.968794
11746.032000	10022.862898	0.607713	19.970373
11746.033000	10023.270610	0.608270	19.969076
11746.034000	10023.130540	0.608332	19.959640
11746.035000	10023.417903	0.608356	19.954201
11746.036000	10023.958983	0.608590	19.951958
11746.037000	10023.817830	0.608099	19.952751
11746.038000	10023.813081	0.607898	19.956268
11746.039000	10023.602102	0.608048	19.960250
11746.040000	10024.401858	0.608461	19.943864
11746.041000	10024.019336	0.608328	19.944497
11746.042000	10023.886701	0.608620	19.946656
11746.043000	10023.823494	0.608869	19.947510
11746.044000	10024.154832	0.608192	19.952195
11746.045000	10024.582970	0.607894	19.959922
11746.046000	10024.585520	0.608442	19.949082
11746.047000	10024.433669	0.608196	19.953133
11746.048000	10024.606520	0.607896	19.952645
11746.049000	10024.483189	0.608063	19.945336
11746.050000	10024.986128	0.607745	19.957786
11746.051000	10024.976575	0.607997	19.954246
11746.052000	10024.900636	0.608199	19.958511
11746.053000	10025.287080	0.608279	19.957649
11746.054000	10025.842840	0.608352	19.955841
11746.055000	10025.592494	0.608453	19.960647
11746.056000	10025.593969	0.608637	19.962302
11746.057000	10025.483466	0.608619	19.965605
11746.058000	10025.622419	0.608233	19.969374
11746.059000	10026.282765	0.608115	19.964178
11746.060000	10025.679071	0.607713	19.965826
11746.061000	10025.900333	0.607414	19.972020
11746.062000	10026.709693	0.607985	19.971952
11746.063000	10026.096077	0.608546	19.959281
11746.064000	10025.976033	0.608256	19.961890
11746.065000	10025.945759	0.608194	19.955131
11746.066000	10026.358520	0.608631	19.942919
11746.067000	10026.419889	0.608152	19.959899
11746.068000	10026.470545	0.608467	19.947289
11746.069000	10026.862605	0.608072	19.943826
11746.070000	10027.455815	0.607808	19.946442
11746.071000	10027.356273	0.608547	19.937853
11746.072000	10026.565772	0.608972	19.943002
11746.073000	10028.173926	0.608886	19.948197
11746.074000	10027.850584	0.608727	19.953598
11746.075000	10027.169025	0.609127	19.951172
11746.076000	10027.830639	0.608931	19.951348
11746.077000	10027.847196	0.608122	19.963721
11746.078000	10028.381762	0.607590	19.964552
